{
  "title": "AUC",
  "created": "08-09-23 11:58:50",
  "modified": "08-09-23 11:58:50",
  "description": "DESCRIPTION: AUC;LOCALITY: AUC;STATUS: AUC",
  "sources": [
    {
      "citation": "Highlights in Mineralogical Crystallography 2015 1-30",
      "reftype": "journal article",
      "doi": "10.1515/9783110417104-003",
      "url": "https://doi.org/10.1515/9783110417104-003"
    },
    {
      "citation": "RRUFF project database entry",
      "url": "https://rruff.info"
    }
  ],
  "scidata": {
    "methodology": {
      "techniqueType": "obo:CHMO_0000228",
      "technique": "obo:CHMO_0000656",
      "instrumentType": "raman spectrometer",
      "instrument": "Unknown",
      "settings": []
    },
    "system": {
      "material": {
        "name": "AUC",
        "materialType": "AUC"
      }
    },
    "dataseries": [
      {
        "x-axis": {
          "parameter": {
            "quantity": "Wave Numbers",
            "property": "Wave Numbers",
            "units": "1/cm",
            "datatype": "decimal",
            "numericValueArray": [
              {
                "numberArray": [
                  1232.998047,
                  1231.917969,
                  1230.837891,
                  1229.757813,
                  1228.676758,
                  1227.59668,
                  1226.515625,
                  1225.43457,
                  1224.352539,
                  1223.271484,
                  1222.189453,
                  1221.107422,
                  1220.024414,
                  1218.942383,
                  1217.859375,
                  1216.776367,
                  1215.693359,
                  1214.610352,
                  1213.526367,
                  1212.442383,
                  1211.358398,
                  1210.274414,
                  1209.189453,
                  1208.104492,
                  1207.019531,
                  1205.93457,
                  1204.849609,
                  1203.763672,
                  1202.677734,
                  1201.591797,
                  1200.504883,
                  1199.418945,
                  1198.332031,
                  1197.245117,
                  1196.158203,
                  1195.070313,
                  1193.982422,
                  1192.894531,
                  1191.806641,
                  1190.71875,
                  1189.629883,
                  1188.541016,
                  1187.452148,
                  1186.363281,
                  1185.273438,
                  1184.183594,
                  1183.09375,
                  1182.003906,
                  1180.914063,
                  1179.823242,
                  1178.732422,
                  1177.641602,
                  1176.549805,
                  1175.458984,
                  1174.367188,
                  1173.275391,
                  1172.182617,
                  1171.09082,
                  1169.998047,
                  1168.905273,
                  1167.8125,
                  1166.71875,
                  1165.625977,
                  1164.532227,
                  1163.4375,
                  1162.34375,
                  1161.249023,
                  1160.154297,
                  1159.05957,
                  1157.964844,
                  1156.869141,
                  1155.774414,
                  1154.678711,
                  1153.582031,
                  1152.486328,
                  1151.389648,
                  1150.292969,
                  1149.196289,
                  1148.098633,
                  1147.001953,
                  1145.904297,
                  1144.806641,
                  1143.708008,
                  1142.610352,
                  1141.511719,
                  1140.413086,
                  1139.313477,
                  1138.214844,
                  1137.115234,
                  1136.015625,
                  1134.916016,
                  1133.81543,
                  1132.71582,
                  1131.615234,
                  1130.513672,
                  1129.413086,
                  1128.311523,
                  1127.209961,
                  1126.108398,
                  1125.006836,
                  1123.904297,
                  1122.801758,
                  1121.699219,
                  1120.59668,
                  1119.494141,
                  1118.390625,
                  1117.287109,
                  1116.182617,
                  1115.079102,
                  1113.974609,
                  1112.870117,
                  1111.765625,
                  1110.661133,
                  1109.555664,
                  1108.450195,
                  1107.344727,
                  1106.238281,
                  1105.132813,
                  1104.026367,
                  1102.919922,
                  1101.8125,
                  1100.706055,
                  1099.598633,
                  1098.491211,
                  1097.383789,
                  1096.275391,
                  1095.166992,
                  1094.058594,
                  1092.950195,
                  1091.84082,
                  1090.732422,
                  1089.623047,
                  1088.512695,
                  1087.40332,
                  1086.292969,
                  1085.182617,
                  1084.072266,
                  1082.961914,
                  1081.850586,
                  1080.739258,
                  1079.62793,
                  1078.516602,
                  1077.404297,
                  1076.291992,
                  1075.179688,
                  1074.067383,
                  1072.954102,
                  1071.84082,
                  1070.727539,
                  1069.614258,
                  1068.5,
                  1067.385742,
                  1066.271484,
                  1065.157227,
                  1064.041992,
                  1062.927734,
                  1061.8125,
                  1060.696289,
                  1059.581055,
                  1058.464844,
                  1057.348633,
                  1056.232422,
                  1055.115234,
                  1053.999023,
                  1052.881836,
                  1051.764648,
                  1050.646484,
                  1049.52832,
                  1048.410156,
                  1047.291992,
                  1046.173828,
                  1045.054688,
                  1043.935547,
                  1042.816406,
                  1041.697266,
                  1040.577148,
                  1039.457031,
                  1038.336914,
                  1037.216797,
                  1036.095703,
                  1034.974609,
                  1033.853516,
                  1032.732422,
                  1031.610352,
                  1030.488281,
                  1029.366211,
                  1028.244141,
                  1027.121094,
                  1025.998047,
                  1024.875,
                  1023.751953,
                  1022.62793,
                  1021.503906,
                  1020.379883,
                  1019.255859,
                  1018.131836,
                  1017.006836,
                  1015.881836,
                  1014.755859,
                  1013.630859,
                  1012.504883,
                  1011.378906,
                  1010.25293,
                  1009.125977,
                  1007.999023,
                  1006.87207,
                  1005.745117,
                  1004.617188,
                  1003.490234,
                  1002.362305,
                  1001.233398,
                  1000.105469,
                  998.976563,
                  997.847656,
                  996.71875,
                  995.588867,
                  994.458984,
                  993.329102,
                  992.199219,
                  991.069336,
                  989.938477,
                  988.807617,
                  987.676758,
                  986.544922,
                  985.413086,
                  984.28125,
                  983.149414,
                  982.016602,
                  980.884766,
                  979.751953,
                  978.618164,
                  977.485352,
                  976.351563,
                  975.217773,
                  974.083984,
                  972.949219,
                  971.814453,
                  970.679688,
                  969.544922,
                  968.410156,
                  967.274414,
                  966.138672,
                  965.001953,
                  963.866211,
                  962.729492,
                  961.592773,
                  960.456055,
                  959.318359,
                  958.180664,
                  957.042969,
                  955.905273,
                  954.766602,
                  953.628906,
                  952.490234,
                  951.350586,
                  950.211914,
                  949.072266,
                  947.932617,
                  946.791992,
                  945.652344,
                  944.511719,
                  943.371094,
                  942.229492,
                  941.088867,
                  939.947266,
                  938.805664,
                  937.663086,
                  936.521484,
                  935.378906,
                  934.236328,
                  933.092773,
                  931.950195,
                  930.806641,
                  929.663086,
                  928.518555,
                  927.375,
                  926.230469,
                  925.085938,
                  923.94043,
                  922.794922,
                  921.649414,
                  920.503906,
                  919.358398,
                  918.211914,
                  917.06543,
                  915.918945,
                  914.771484,
                  913.625,
                  912.477539,
                  911.329102,
                  910.181641,
                  909.033203,
                  907.884766,
                  906.736328,
                  905.586914,
                  904.4375,
                  903.288086,
                  902.138672,
                  900.988281,
                  899.838867,
                  898.6875,
                  897.537109,
                  896.386719,
                  895.235352,
                  894.083984,
                  892.931641,
                  891.780273,
                  890.62793,
                  889.474609,
                  888.322266,
                  887.168945,
                  886.015625,
                  884.862305,
                  883.708984,
                  882.554688,
                  881.400391,
                  880.246094,
                  879.09082,
                  877.936523,
                  876.78125,
                  875.625,
                  874.469727,
                  873.313477,
                  872.157227,
                  871.000977,
                  869.84375,
                  868.686523,
                  867.529297,
                  866.37207,
                  865.213867,
                  864.055664,
                  862.897461,
                  861.739258,
                  860.580078,
                  859.420898,
                  858.261719,
                  857.101563,
                  855.942383,
                  854.782227,
                  853.621094,
                  852.460938,
                  851.299805,
                  850.138672,
                  848.977539,
                  847.81543,
                  846.65332,
                  845.491211,
                  844.329102,
                  843.166016,
                  842.00293,
                  840.839844,
                  839.676758,
                  838.512695,
                  837.348633,
                  836.18457,
                  835.020508,
                  833.855469,
                  832.69043,
                  831.525391,
                  830.359375,
                  829.193359,
                  828.027344,
                  826.861328,
                  825.695313,
                  824.52832,
                  823.361328,
                  822.193359,
                  821.026367,
                  819.858398,
                  818.69043,
                  817.521484,
                  816.352539,
                  815.183594,
                  814.014648,
                  812.845703,
                  811.675781,
                  810.505859,
                  809.335938,
                  808.165039,
                  806.994141,
                  805.823242,
                  804.652344,
                  803.480469,
                  802.308594,
                  801.136719,
                  799.964844,
                  798.791992,
                  797.619141,
                  796.446289,
                  795.272461,
                  794.099609,
                  792.925781,
                  791.750977,
                  790.577148,
                  789.402344,
                  788.227539,
                  787.052734,
                  785.876953,
                  784.701172,
                  783.525391,
                  782.348633,
                  781.172852,
                  779.996094,
                  778.818359,
                  777.641602,
                  776.463867,
                  775.286133,
                  774.108398,
                  772.929688,
                  771.750977,
                  770.572266,
                  769.393555,
                  768.213867,
                  767.03418,
                  765.854492,
                  764.673828,
                  763.494141,
                  762.313477,
                  761.131836,
                  759.951172,
                  758.769531,
                  757.587891,
                  756.40625,
                  755.223633,
                  754.041016,
                  752.858398,
                  751.674805,
                  750.492188,
                  749.308594,
                  748.124023,
                  746.94043,
                  745.755859,
                  744.571289,
                  743.386719,
                  742.201172,
                  741.015625,
                  739.830078,
                  738.643555,
                  737.458008,
                  736.271484,
                  735.083984,
                  733.897461,
                  732.709961,
                  731.522461,
                  730.334961,
                  729.146484,
                  727.958008,
                  726.769531,
                  725.580078,
                  724.391602,
                  723.202148,
                  722.011719,
                  720.822266,
                  719.631836,
                  718.441406,
                  717.250977,
                  716.05957,
                  714.868164,
                  713.676758,
                  712.484375,
                  711.292969,
                  710.100586,
                  708.907227,
                  707.714844,
                  706.521484,
                  705.328125,
                  704.133789,
                  702.94043,
                  701.746094,
                  700.550781,
                  699.356445,
                  698.161133,
                  696.96582,
                  695.770508,
                  694.574219,
                  693.37793,
                  692.181641,
                  690.985352,
                  689.788086,
                  688.59082,
                  687.393555,
                  686.195313,
                  684.99707,
                  683.798828,
                  682.600586,
                  681.401367,
                  680.202148,
                  679.00293,
                  677.803711,
                  676.603516,
                  675.40332,
                  674.203125,
                  673.001953,
                  671.800781,
                  670.599609,
                  669.398438,
                  668.196289,
                  666.994141,
                  665.791992,
                  664.588867,
                  663.385742,
                  662.182617,
                  660.979492,
                  659.775391,
                  658.571289,
                  657.367188,
                  656.162109,
                  654.958008,
                  653.75293,
                  652.546875,
                  651.341797,
                  650.135742,
                  648.929688,
                  647.722656,
                  646.515625,
                  645.308594,
                  644.101563,
                  642.893555,
                  641.686523,
                  640.477539,
                  639.269531,
                  638.060547,
                  636.851563,
                  635.642578,
                  634.432617,
                  633.223633,
                  632.012695,
                  630.802734,
                  629.591797,
                  628.380859,
                  627.169922,
                  625.958984,
                  624.74707,
                  623.535156,
                  622.322266,
                  621.110352,
                  619.897461,
                  618.68457,
                  617.470703,
                  616.256836,
                  615.042969,
                  613.829102,
                  612.614258,
                  611.399414,
                  610.18457,
                  608.969727,
                  607.753906,
                  606.538086,
                  605.321289,
                  604.105469,
                  602.888672,
                  601.671875,
                  600.454102,
                  599.236328,
                  598.018555,
                  596.800781,
                  595.582031,
                  594.364258,
                  593.144531,
                  591.925781,
                  590.706055,
                  589.486328,
                  588.266602,
                  587.045898,
                  585.825195,
                  584.604492,
                  583.382813,
                  582.162109,
                  580.94043,
                  579.717773,
                  578.496094,
                  577.273438,
                  576.050781,
                  574.827148,
                  573.603516,
                  572.379883,
                  571.15625,
                  569.931641,
                  568.707031,
                  567.482422,
                  566.257813,
                  565.032227,
                  563.806641,
                  562.580078,
                  561.354492,
                  560.12793,
                  558.901367,
                  557.673828,
                  556.446289,
                  555.21875,
                  553.991211,
                  552.762695,
                  551.53418,
                  550.305664,
                  549.076172,
                  547.847656,
                  546.618164,
                  545.387695,
                  544.157227,
                  542.926758,
                  541.696289,
                  540.46582,
                  539.234375,
                  538.00293,
                  536.770508,
                  535.538086,
                  534.305664,
                  533.073242,
                  531.84082,
                  530.607422,
                  529.373047,
                  528.139648,
                  526.905273,
                  525.670898,
                  524.436523,
                  523.201172,
                  521.96582,
                  520.730469,
                  519.495117,
                  518.258789,
                  517.022461,
                  515.785156,
                  514.548828,
                  513.311523,
                  512.073242,
                  510.835938,
                  509.597656,
                  508.359375,
                  507.120117,
                  505.881836,
                  504.642578,
                  503.402344,
                  502.163086,
                  500.922852,
                  499.682617,
                  498.441406,
                  497.200195,
                  495.958984,
                  494.717773,
                  493.475586,
                  492.233398,
                  490.991211,
                  489.748047,
                  488.505859,
                  487.261719,
                  486.018555,
                  484.774414,
                  483.530273,
                  482.286133,
                  481.041016,
                  479.795898,
                  478.550781,
                  477.305664,
                  476.05957,
                  474.813477,
                  473.566406,
                  472.320313,
                  471.073242,
                  469.825195,
                  468.578125,
                  467.330078,
                  466.082031,
                  464.833008,
                  463.584961,
                  462.334961,
                  461.085938,
                  459.835938,
                  458.585938,
                  457.335938,
                  456.085938,
                  454.834961,
                  453.583984,
                  452.332031,
                  451.080078,
                  449.828125,
                  448.576172,
                  447.323242,
                  446.070313,
                  444.817383,
                  443.564453,
                  442.310547,
                  441.056641,
                  439.801758,
                  438.547852,
                  437.291992,
                  436.037109,
                  434.78125,
                  433.526367,
                  432.269531,
                  431.013672,
                  429.756836,
                  428.5,
                  427.242188,
                  425.985352,
                  424.727539,
                  423.46875,
                  422.210938,
                  420.952148,
                  419.692383,
                  418.433594,
                  417.173828,
                  415.914063,
                  414.65332,
                  413.393555,
                  412.132813,
                  410.871094,
                  409.610352,
                  408.348633,
                  407.085938,
                  405.824219,
                  404.561523,
                  403.298828,
                  402.035156,
                  400.771484,
                  399.507813,
                  398.244141,
                  396.979492,
                  395.714844,
                  394.450195,
                  393.18457,
                  391.918945,
                  390.65332,
                  389.387695,
                  388.121094,
                  386.854492,
                  385.586914,
                  384.320313,
                  383.051758,
                  381.78418,
                  380.515625,
                  379.24707,
                  377.978516,
                  376.709961,
                  375.44043,
                  374.170898,
                  372.900391,
                  371.629883,
                  370.359375,
                  369.088867,
                  367.817383,
                  366.545898,
                  365.274414,
                  364.001953,
                  362.729492,
                  361.457031,
                  360.183594,
                  358.910156,
                  357.636719,
                  356.363281,
                  355.088867,
                  353.814453,
                  352.539063,
                  351.264648,
                  349.989258,
                  348.712891,
                  347.4375,
                  346.161133,
                  344.884766,
                  343.607422,
                  342.330078,
                  341.052734,
                  339.774414,
                  338.49707,
                  337.217773,
                  335.939453,
                  334.660156,
                  333.380859,
                  332.101563,
                  330.821289,
                  329.541016,
                  328.260742,
                  326.979492,
                  325.698242,
                  324.416992,
                  323.135742,
                  321.853516,
                  320.571289,
                  319.288086,
                  318.004883,
                  316.72168,
                  315.438477,
                  314.154297,
                  312.870117,
                  311.585938,
                  310.300781,
                  309.015625,
                  307.730469,
                  306.444336,
                  305.158203,
                  303.87207,
                  302.585938,
                  301.298828,
                  300.011719,
                  298.723633,
                  297.435547,
                  296.147461,
                  294.859375,
                  293.570313,
                  292.28125,
                  290.992188,
                  289.702148,
                  288.412109,
                  287.12207,
                  285.831055,
                  284.540039,
                  283.249023,
                  281.957031,
                  280.665039,
                  279.373047,
                  278.081055,
                  276.788086,
                  275.495117,
                  274.201172,
                  272.908203,
                  271.613281,
                  270.319336,
                  269.024414,
                  267.729492,
                  266.43457,
                  265.138672,
                  263.842773,
                  262.546875,
                  261.25,
                  259.953125,
                  258.65625,
                  257.358398,
                  256.060547,
                  254.762695,
                  253.464844,
                  252.166016,
                  250.867188,
                  249.567383,
                  248.267578,
                  246.967773,
                  245.667969,
                  244.367188,
                  243.066406,
                  241.764648,
                  240.463867,
                  239.161133,
                  237.859375,
                  236.556641,
                  235.253906,
                  233.951172,
                  232.647461,
                  231.34375,
                  230.040039,
                  228.735352,
                  227.430664,
                  226.125977,
                  224.820313,
                  223.514648,
                  222.208984,
                  220.90332,
                  219.59668,
                  218.290039,
                  216.982422,
                  215.674805,
                  214.367188,
                  213.058594,
                  211.750977,
                  210.441406,
                  209.132813,
                  207.823242,
                  206.513672,
                  205.203125,
                  203.893555,
                  202.583008,
                  201.271484,
                  199.959961,
                  198.648438,
                  197.336914,
                  196.024414,
                  194.711914,
                  193.399414,
                  192.085938,
                  190.772461,
                  189.458984,
                  188.144531,
                  186.830078,
                  185.514648,
                  184.200195,
                  182.884766,
                  181.568359,
                  180.25293,
                  178.936523,
                  177.620117,
                  176.302734,
                  174.985352,
                  173.667969,
                  172.349609,
                  171.03125,
                  169.712891,
                  168.393555,
                  167.074219,
                  165.754883,
                  164.43457,
                  163.114258,
                  161.793945,
                  160.472656,
                  159.152344,
                  157.830078,
                  156.508789,
                  155.186523,
                  153.864258,
                  152.541016,
                  151.217773,
                  149.894531,
                  148.570313,
                  147.246094,
                  145.921875,
                  144.597656,
                  143.272461,
                  141.946289,
                  140.621094,
                  139.294922,
                  137.96875,
                  136.641602,
                  135.314453,
                  133.987305,
                  132.660156,
                  131.332031,
                  130.00293,
                  128.674805,
                  127.345703,
                  126.016602,
                  124.686523,
                  123.356445,
                  122.026367,
                  120.695313,
                  119.365234,
                  118.033203,
                  116.702148,
                  115.370117,
                  114.038086,
                  112.705078,
                  111.37207,
                  110.039063,
                  108.705078,
                  107.371094,
                  106.037109,
                  104.702148,
                  103.367188,
                  102.032227,
                  100.697266,
                  99.361328,
                  98.024414,
                  96.688477,
                  95.351563,
                  94.013672,
                  92.676758,
                  91.338867,
                  90,
                  88.662109,
                  87.323242,
                  85.983398,
                  84.644531,
                  83.304688,
                  81.963867,
                  80.624023,
                  79.283203,
                  77.941406,
                  76.599609,
                  75.257813,
                  73.916016,
                  72.573242,
                  71.230469,
                  69.887695,
                  68.543945,
                  67.200195,
                  65.855469,
                  64.510742,
                  63.166016,
                  61.821289,
                  60.475586,
                  59.129883,
                  57.783203,
                  56.436523,
                  55.089844,
                  53.743164,
                  52.395508,
                  51.047852,
                  49.699219,
                  48.350586,
                  47.001953,
                  45.652344,
                  44.302734,
                  42.953125,
                  41.602539,
                  40.251953,
                  38.901367,
                  37.549805,
                  36.198242,
                  34.84668,
                  33.494141,
                  32.141602,
                  30.788086,
                  29.435547,
                  28.082031,
                  26.727539,
                  25.373047,
                  24.018555,
                  22.664063,
                  21.308594,
                  19.952148,
                  18.59668,
                  17.240234,
                  15.883789,
                  14.526367,
                  13.168945,
                  11.811523,
                  10.453125,
                  9.094727,
                  7.736328,
                  6.376953
                ]
              }
            ]
          }
        },
        "hasAxisType": "x-axis"
      },
      {
        "y-axis": {
          "parameter": {
            "quantity": "Intensity (Arbitrary Units)",
            "property": "Intensity (Arbitrary Units)",
            "datatype": "decimal",
            "numericValueArray": [
              {
                "numberArray": [
                  2194.644531,
                  2118.248535,
                  2198.828857,
                  2165.98584,
                  2066.060791,
                  2239.127686,
                  2150.791504,
                  2154.979248,
                  2071.318848,
                  2047.785278,
                  2151.35498,
                  2132.434814,
                  2148.170166,
                  2186.992676,
                  2156.531494,
                  2193.027588,
                  2127.95752,
                  2229.054199,
                  2154.774658,
                  2135.882813,
                  2121.610352,
                  2137.316895,
                  2060.810547,
                  2111.092773,
                  2103.749023,
                  2172.431396,
                  2112.102295,
                  2077.128174,
                  2145.773438,
                  2108.504639,
                  2062.045166,
                  2084.63208,
                  2162.42041,
                  2134.377686,
                  2202.925293,
                  2039.24231,
                  2054.914063,
                  2180.887207,
                  2056.368408,
                  2196.072021,
                  2156.577637,
                  2043.620605,
                  2107.481201,
                  2088.685791,
                  2124.9729,
                  2158.950439,
                  2057.577148,
                  2174.115479,
                  2146.153076,
                  2104.447266,
                  2092.553955,
                  2105.871582,
                  2105.437256,
                  2059.192383,
                  2074.797852,
                  2053.763428,
                  2108.27832,
                  2087.245117,
                  2118.848389,
                  2125.273682,
                  2099.674805,
                  2209.004883,
                  2091.94751,
                  2089.229004,
                  2118.505859,
                  2166.049316,
                  2145.04126,
                  2105.770508,
                  2057.381836,
                  2084.35083,
                  2045.116333,
                  2062.948242,
                  2142.374512,
                  2144.210938,
                  2216.745117,
                  2168.4021,
                  2101.841553,
                  2121.91748,
                  2472.397217,
                  2111.922363,
                  2179.815918,
                  2183.916992,
                  2140.203125,
                  2144.310059,
                  2137.036133,
                  2257.186523,
                  2252.166504,
                  2260.794678,
                  2255.775635,
                  2337.150879,
                  2432.130127,
                  2392.989258,
                  2483.372559,
                  2664.581787,
                  2648.127441,
                  2724.776123,
                  2683.34375,
                  2696.400879,
                  2872.83667,
                  2919.879395,
                  2889.781006,
                  2952.674561,
                  2954.323975,
                  3035.311768,
                  2996.147705,
                  2864.0979,
                  2967.707031,
                  2901.401367,
                  2760.395508,
                  2918.296631,
                  2811.298584,
                  2661.347412,
                  2642.687988,
                  2678.32666,
                  2668.717529,
                  2711.118652,
                  2647.25,
                  2587.928467,
                  2555.748047,
                  2564.247559,
                  2602.107178,
                  2560.910156,
                  2535.535156,
                  2494.368896,
                  2453.219727,
                  2522.651367,
                  2420.603271,
                  2381.750488,
                  2300.069336,
                  2222.931396,
                  2303.607178,
                  2298.614014,
                  2289.116455,
                  2209.79248,
                  2236.351074,
                  2238.130371,
                  2282.680664,
                  2241.685791,
                  2270.464844,
                  2319.47876,
                  2251.510254,
                  2293.760986,
                  2178.611816,
                  2214.115723,
                  2339.499023,
                  2406.409912,
                  2307.05835,
                  2513.194824,
                  2436.316895,
                  2525.599365,
                  2545.26416,
                  2569.408691,
                  2651.874756,
                  2770.194824,
                  2910.890381,
                  3098.610352,
                  3378.157715,
                  3693.44458,
                  4080.299316,
                  4713.413086,
                  5682.217773,
                  6670.763672,
                  8151.421387,
                  9864.232422,
                  11249.589844,
                  12466.554688,
                  13718.791016,
                  14659.631836,
                  15311.635742,
                  16571.402344,
                  18208.341797,
                  21442.25,
                  24498.287109,
                  22060.730469,
                  16325.96875,
                  11567.0625,
                  8656.146484,
                  6768.562988,
                  5441.806641,
                  4784.822266,
                  4284.23291,
                  3913.181885,
                  3611.395752,
                  3367.686523,
                  3104.026611,
                  3056.578125,
                  2824.279785,
                  2870.439697,
                  2651.638428,
                  2584.292969,
                  2577.063232,
                  2543.136719,
                  2373.530518,
                  2286.2854,
                  2359.172119,
                  2345.327881,
                  2144.79248,
                  2170.997559,
                  2070.558594,
                  2145.633301,
                  2140.731445,
                  2149.152588,
                  2157.569824,
                  2128.256348,
                  2007.985474,
                  2098.503906,
                  2120.230957,
                  2115.340576,
                  2077.198975,
                  2023.55896,
                  2109.543945,
                  2044.842529,
                  2028.897705,
                  2024.031982,
                  2023.596069,
                  2038.654907,
                  1971.824341,
                  2057.689697,
                  1982.035034,
                  1988.242554,
                  2032.036621,
                  1985.174438,
                  1984.746216,
                  2059.447998,
                  2067.840576,
                  2047.515381,
                  2002.907837,
                  2079.748291,
                  1995.420776,
                  2142.848389,
                  2049.717773,
                  2106.62793,
                  2079.70752,
                  2077.052979,
                  2058.968018,
                  2082.766357,
                  2084.519287,
                  1947.480225,
                  1984.502075,
                  2023.709839,
                  2043.08606,
                  2077.861572,
                  2064.20752,
                  2065.960205,
                  1997.322021,
                  1970.498413,
                  1948.08374,
                  2101.539795,
                  2065.919189,
                  2021.524902,
                  2062.825928,
                  2066.770996,
                  2035.579956,
                  2046.11499,
                  2054.450439,
                  2133.00415,
                  1970.18689,
                  1965.371704,
                  2015.383911,
                  1979.865112,
                  2139.455322,
                  2099.541504,
                  2081.555908,
                  2050.434082,
                  2106.931885,
                  2123.990723,
                  2202.3396,
                  2171.217773,
                  2131.356445,
                  2056.507813,
                  2222.294434,
                  2129.963623,
                  2114.194824,
                  2129.035156,
                  2165.722412,
                  2147.770752,
                  2184.437744,
                  2186.14502,
                  2257.7229,
                  2220.119141,
                  2193.443848,
                  2254.0625,
                  2220.84668,
                  2150.566162,
                  2265.669434,
                  2160.5271,
                  2192.75,
                  2262.004883,
                  2209.221191,
                  2176.064209,
                  2214.788086,
                  2196.885254,
                  2248.647949,
                  2226.392578,
                  2286.829346,
                  2310.257813,
                  2240.154785,
                  2330.990234,
                  2345.697266,
                  2303.887207,
                  2422.897461,
                  2261.599365,
                  2300.200439,
                  2364.843262,
                  2331.758301,
                  2311.711182,
                  2374.138184,
                  2388.804932,
                  2383.942139,
                  2361.731689,
                  2445.774414,
                  2449.572998,
                  2420.860107,
                  2550.336914,
                  2463.123291,
                  2612.026123,
                  2576.805908,
                  2487.478271,
                  2612.468262,
                  2564.286865,
                  2622.136719,
                  2703.753906,
                  2703.158936,
                  2812.828613,
                  2853.279297,
                  2891.551025,
                  3163.152832,
                  3147.335205,
                  3377.726563,
                  3405.052002,
                  3589.95166,
                  3746.712158,
                  4136.442383,
                  4236.92334,
                  4773.036133,
                  5188.157715,
                  5631.121094,
                  6354.089844,
                  7150.006348,
                  7893.86377,
                  9081.109375,
                  10513.327148,
                  12076.245117,
                  13864.488281,
                  15473.318359,
                  17300.898438,
                  19635.332031,
                  21074.068359,
                  22062.783203,
                  22861.886719,
                  23159.869141,
                  23103.177734,
                  22784.421875,
                  22321.902344,
                  21378.589844,
                  20489.363281,
                  19488.917969,
                  18445.996094,
                  17684.583984,
                  16790.519531,
                  15858.250977,
                  15378.774414,
                  14528.681641,
                  13781.830078,
                  13266.704102,
                  12661.837891,
                  11992.991211,
                  11305.168945,
                  11013.672852,
                  10347.773438,
                  9990.286133,
                  9401.919922,
                  9002.024414,
                  8621.549805,
                  8119.388672,
                  7927.362793,
                  7502.504395,
                  7270.108398,
                  6798.593262,
                  6504.52832,
                  6195.648438,
                  5899.712402,
                  5644.453613,
                  5216.491699,
                  5115.077637,
                  4928.404785,
                  4611.755859,
                  4476.436523,
                  4183.470703,
                  4137.79541,
                  4041.014404,
                  3829.270508,
                  3628.266602,
                  3589.140381,
                  3420.203613,
                  3421.56958,
                  3210.19751,
                  3296.68457,
                  3157.732422,
                  3103.879883,
                  2965.031982,
                  2815.62085,
                  2831.989014,
                  2839.853271,
                  2745.782227,
                  2847.078369,
                  2748.802002,
                  2591.148926,
                  2743.331299,
                  2736.35498,
                  2697.570557,
                  2612.157715,
                  2622.172852,
                  2524.098633,
                  2595.574951,
                  2514.496826,
                  2628.300781,
                  2532.429199,
                  2567.85083,
                  2543.995361,
                  2532.846191,
                  2652.864258,
                  2478.836426,
                  2641.104004,
                  2539.035889,
                  2620.898926,
                  2645.669678,
                  2689.443604,
                  2693.06543,
                  2673.456543,
                  2778.42041,
                  2786.240967,
                  2726.527588,
                  2742.795166,
                  2868.742188,
                  2754.218506,
                  2846.371338,
                  2710.823975,
                  2813.482178,
                  2713.821533,
                  2740.597412,
                  2729.451904,
                  2806.74585,
                  2835.587158,
                  2895.985107,
                  3027.897217,
                  3001.972656,
                  3131.697754,
                  3135.199707,
                  3233.302002,
                  3253.593262,
                  3341.117676,
                  3262.634521,
                  3499.244629,
                  3565.654785,
                  4171.591309,
                  5251.62207,
                  5953.437012,
                  5217.788086,
                  4151.057129,
                  3491.63916,
                  3256.032715,
                  3083.41626,
                  2998.895264,
                  2646.227295,
                  2540.895264,
                  2475.400879,
                  2353.404053,
                  2363.340088,
                  2327.229004,
                  2347.62793,
                  2305.260742,
                  2235.724121,
                  2302.129883,
                  2226.353516,
                  2200.770996,
                  2279.676514,
                  2245.736816,
                  2193.015381,
                  2223.841797,
                  2189.937256,
                  2145.612061,
                  2201.468262,
                  2271.902588,
                  2177.530273,
                  2106.138428,
                  2180.715576,
                  2151.041748,
                  2038.026245,
                  2172.986328,
                  2126.67041,
                  2186.580566,
                  2127.790283,
                  2177.265137,
                  2133.070557,
                  2253.260986,
                  2105.063477,
                  2081.710938,
                  2114.506104,
                  2161.837158,
                  2159.269043,
                  2144.235596,
                  2006.649536,
                  1989.580322,
                  2142.778076,
                  2094.547607,
                  2187.465332,
                  2137.171143,
                  2105.56958,
                  2013.836792,
                  2114.981934,
                  2158.035889,
                  2047.699829,
                  2188.137939,
                  2173.139648,
                  2178.859863,
                  2130.739258,
                  2186.151123,
                  2098.725098,
                  2081.694092,
                  2182.592773,
                  2095.226563,
                  2131.971924,
                  2148.026367,
                  2073.128662,
                  2134.650879,
                  2090.779785,
                  2164.662842,
                  2215.796387,
                  2184.32373,
                  2192.083008,
                  2094.593018,
                  2071.421387,
                  2198.837158,
                  2231.332031,
                  2026.709717,
                  2213.825439,
                  2240.111816,
                  2309.65332,
                  2247.330566,
                  2277.709473,
                  2262.777588,
                  2375.477783,
                  2302.906006,
                  2277.69043,
                  2365.624512,
                  2363.02832,
                  2465.29541,
                  2341.393555,
                  2439.508057,
                  2393.747559,
                  2432.231689,
                  2419.353516,
                  2556.373047,
                  2549.630615,
                  2493.634033,
                  2575.140381,
                  2681.226563,
                  2682.664795,
                  2636.940674,
                  2798.290039,
                  2748.460693,
                  2919.956055,
                  2777.933105,
                  2736.334473,
                  2960.953857,
                  2909.095947,
                  3078.310303,
                  2948.689941,
                  2958.243896,
                  3045.516357,
                  3104.120117,
                  3168.830078,
                  3135.401367,
                  3148.987061,
                  3229.985596,
                  3145.501465,
                  3099.85498,
                  3346.17749,
                  3361.739258,
                  3391.578369,
                  3539.734375,
                  3516.485352,
                  3489.168213,
                  3594.384521,
                  3634.325928,
                  3655.908203,
                  3687.666992,
                  3780.518311,
                  3732.811768,
                  3882.617188,
                  3967.216797,
                  3994.795898,
                  4020.327393,
                  4037.710449,
                  4071.354004,
                  4210.707031,
                  4293.080078,
                  4251.447754,
                  4256.56543,
                  4310.431152,
                  4335.840332,
                  4418.087891,
                  4348.054199,
                  4383.583008,
                  4380.544922,
                  4438.362793,
                  4504.265625,
                  4397.794434,
                  4502.19043,
                  4499.126465,
                  4579.13623,
                  4326.894043,
                  4415.006836,
                  4509.152832,
                  4421.068359,
                  4349.214355,
                  4220.739258,
                  4341.13916,
                  4388.675781,
                  4185.466797,
                  4107.683594,
                  4242.144531,
                  4136.095215,
                  4104.838867,
                  4168.519043,
                  4086.789307,
                  4223.116699,
                  4183.794434,
                  4083.956787,
                  4151.600586,
                  3999.378418,
                  4050.87915,
                  4027.767334,
                  4022.804932,
                  3886.871338,
                  4010.871094,
                  3864.932373,
                  3972.770508,
                  3893.339844,
                  3978.981689,
                  3883.488281,
                  3804.132324,
                  3911.85791,
                  3772.208252,
                  3887.931885,
                  3925.217773,
                  3924.307861,
                  3818.93457,
                  3695.53418,
                  3815.155762,
                  3711.887695,
                  3857.540771,
                  3742.270508,
                  3747.42041,
                  3826.776611,
                  3705.577148,
                  3754.834717,
                  3661.76709,
                  3773.128662,
                  3706.142334,
                  3643.192871,
                  3666.374756,
                  3749.603516,
                  3746.730469,
                  3725.849365,
                  3760.992432,
                  3764.117676,
                  3687.257324,
                  3724.383057,
                  3725.514893,
                  3650.714355,
                  3767.730957,
                  3880.698242,
                  3767.973389,
                  3729.165283,
                  3814.119385,
                  3769.331543,
                  3800.372559,
                  3833.392822,
                  3792.618896,
                  3887.425293,
                  3856.622314,
                  3945.390869,
                  3974.353027,
                  3905.708252,
                  3992.410889,
                  3911.848389,
                  3988.556885,
                  3979.666504,
                  3962.822266,
                  3908.196289,
                  3945.063721,
                  4023.660889,
                  3889.557617,
                  3958.195068,
                  3953.296631,
                  4043.733887,
                  4062.644775,
                  4006.109375,
                  4003.1875,
                  3968.518555,
                  4142.163574,
                  4194.744141,
                  4102.550293,
                  4174.938965,
                  4078.828125,
                  4065.983887,
                  4094.746582,
                  4171.02832,
                  4134.409668,
                  4216.584473,
                  4162.158691,
                  4190.863281,
                  4354.073242,
                  4360.962891,
                  4346.098633,
                  4420.19873,
                  4512.050781,
                  4348.967285,
                  4421.037598,
                  4649.097168,
                  4622.336426,
                  4623.224609,
                  4685.293457,
                  4859.800293,
                  4744.243652,
                  4776.655762,
                  4822.854492,
                  4916.341309,
                  5094.527832,
                  4977.07959,
                  5224.112793,
                  5161.831543,
                  5213.77832,
                  5507.82373,
                  5292.012207,
                  5440.300781,
                  5397.709961,
                  5482.970215,
                  5521.001465,
                  5466.626465,
                  5534.121094,
                  5560.323242,
                  5505.975586,
                  5432.01416,
                  5554.42627,
                  5439.266113,
                  5487.043945,
                  5477.900879,
                  5417.76123,
                  5400.793457,
                  5474.020996,
                  5384.521484,
                  5297.022949,
                  5272.260742,
                  5288.643066,
                  5353.975098,
                  5109.937988,
                  5050.008301,
                  5146.65918,
                  5041.75,
                  4968.185547,
                  5094.118164,
                  5083.137207,
                  5054.569336,
                  5137.399414,
                  5153.765625,
                  5136.918945,
                  5018.537598,
                  4913.877441,
                  5096.182617,
                  5044.239258,
                  4927.940918,
                  4969.681152,
                  4974.352051,
                  4904.938965,
                  4971.991211,
                  5046.805176,
                  4864.432617,
                  4972.345703,
                  5023.738281,
                  4987.503906,
                  5099.20166,
                  5136.905762,
                  5118.17627,
                  5074.172363,
                  4997.133301,
                  5205.891113,
                  5128.856445,
                  5222.844238,
                  5345.924805,
                  5270.852051,
                  5209.40625,
                  5206.224609,
                  5329.189941,
                  5341.501465,
                  5398.422363,
                  5443.679199,
                  5461.77002,
                  5487.60498,
                  5633.579102,
                  5767.858398,
                  5634.765137,
                  5676.024414,
                  5870.213867,
                  5969.464844,
                  6113.17627,
                  6049.805664,
                  6023.214844,
                  6327.312012,
                  6410.865234,
                  6567.826172,
                  6601.038574,
                  6655.48584,
                  6742.740723,
                  6847.33252,
                  6946.081543,
                  6952.13916,
                  6935.037598,
                  7031.763672,
                  7213.304688,
                  7398.614746,
                  7425.757813,
                  7277.50293,
                  7433.759277,
                  7476.283203,
                  7476.415527,
                  7366.796387,
                  7430.478516,
                  7586.506348,
                  7442.304199,
                  7427.051758,
                  7317.571289,
                  7567.685059,
                  7537.033203,
                  7550.596191,
                  7494.984375,
                  7404.82373,
                  7276.29834,
                  7376.303223,
                  7395.64209,
                  7361.239258,
                  7353.711914,
                  7486.205566,
                  7465.226563,
                  7467.262695,
                  7574.713867,
                  7908.226563,
                  7975.287109,
                  7804.818359,
                  7904.422363,
                  8321.762695,
                  8306.357422,
                  8641.119141,
                  8637.120117,
                  8608.258789,
                  8894.901367,
                  9047.591797,
                  9265.186523,
                  9318.356445,
                  9549.150391,
                  9777.920898,
                  9785.102539,
                  10175.954102,
                  10211.65918,
                  10552.609375,
                  10473.757813,
                  10570.384766,
                  10680.308594,
                  10702.5,
                  11128.665039,
                  11238.371094,
                  11203.266602,
                  11312.898438,
                  11331.095703,
                  11377.832031,
                  11626.244141,
                  11804.146484,
                  11759.438477,
                  11823.132813,
                  11886.794922,
                  12165.183594,
                  12215.428711,
                  12689.255859,
                  12790.62207,
                  12724.855469,
                  13329.185547,
                  13394.260742,
                  13789.429688,
                  13941.612305,
                  14129.749023,
                  14059.951172,
                  14331.363281,
                  14147.848633,
                  14248.598633,
                  14218.607422,
                  14076.908203,
                  14440.740234,
                  14240.379883,
                  14339.083984,
                  14537.999023,
                  14593.078125,
                  14769.141602,
                  15190.862305,
                  15576.467773,
                  15791.833008,
                  16282.880859,
                  16752.914063,
                  17283.130859,
                  17652.642578,
                  18138.972656,
                  18770.335938,
                  19225.970703,
                  19470.177734,
                  19667.130859,
                  19654.771484,
                  19625.457031,
                  19462.398438,
                  19453.859375,
                  19520.638672,
                  19542.203125,
                  19516.703125,
                  19400.898438,
                  19234.359375,
                  19329.308594,
                  19360.28125,
                  19575.451172,
                  19454.125,
                  19496.310547,
                  19778.900391,
                  19760.888672,
                  19940.011719,
                  19974.517578,
                  19699.384766,
                  20037.845703,
                  20509.302734,
                  20706.757813,
                  20784.138672,
                  21307.53125,
                  21234.822266,
                  21602.359375,
                  21797.417969,
                  22436.117188,
                  22765.640625,
                  23132.427734,
                  23268.904297,
                  24192.78125,
                  24444.863281,
                  24990.337891,
                  25537.40625,
                  25878.654297,
                  26064.669922,
                  26213.238281,
                  26552.185547,
                  27058.974609,
                  27223.970703,
                  27077.285156,
                  26841.128906,
                  27045.208984,
                  26958.328125,
                  27009.423828,
                  27397.791016,
                  27165.556641,
                  27771.611328,
                  27362.488281,
                  27521.378906,
                  27207.435547,
                  27650.976563,
                  27778.042969,
                  27864.125,
                  28132.378906,
                  28472.992188,
                  28601.570313,
                  28945.607422,
                  28817.65625,
                  28791.904297,
                  28708.605469,
                  29080.099609,
                  29193.464844,
                  29559.078125,
                  30165.623047,
                  30762.587891,
                  30736.367188,
                  29744.556641,
                  28617.974609,
                  25365.359375,
                  19679.027344,
                  13540.06543,
                  8070.547852,
                  4461.748047,
                  2453.254639,
                  1479.722656,
                  1050.339966,
                  828.229553,
                  722.670959,
                  633.795349,
                  570.826965,
                  522.6651,
                  522.533936,
                  524.248718,
                  463.216125,
                  453.874695,
                  437.159637,
                  429.673401,
                  527.277649,
                  532.674561,
                  613.619385,
                  631.887329,
                  878.52594,
                  933.544006,
                  1148.687866,
                  1269.863647,
                  1760.801636,
                  3425.063965
                ]
              }
            ]
          }
        },
        "hasAxisType": "y-axis"
      }
    ]
  }
}
