##TITLE=AUC
##JCAMP-DX=None
##ORIGIN=Unknown
##OWNER=Tyler Spano
##DATE=05-23-22
##TIME=17:28:54
##SPECTROMETER/DATA SYSTEM=Unknown
##XUNITS=1/CM
##YUNITS=ARBITRARY UNITS
##XFACTOR=1
##YFACTOR=1
##NPOINTS=1016
#XYDATA=(XY..XY)
1232.998047	2194.644531
1231.917969	2118.248535
1230.837891	2198.828857
1229.757813	2165.985840
1228.676758	2066.060791
1227.596680	2239.127686
1226.515625	2150.791504
1225.434570	2154.979248
1224.352539	2071.318848
1223.271484	2047.785278
1222.189453	2151.354980
1221.107422	2132.434814
1220.024414	2148.170166
1218.942383	2186.992676
1217.859375	2156.531494
1216.776367	2193.027588
1215.693359	2127.957520
1214.610352	2229.054199
1213.526367	2154.774658
1212.442383	2135.882813
1211.358398	2121.610352
1210.274414	2137.316895
1209.189453	2060.810547
1208.104492	2111.092773
1207.019531	2103.749023
1205.934570	2172.431396
1204.849609	2112.102295
1203.763672	2077.128174
1202.677734	2145.773438
1201.591797	2108.504639
1200.504883	2062.045166
1199.418945	2084.632080
1198.332031	2162.420410
1197.245117	2134.377686
1196.158203	2202.925293
1195.070313	2039.242310
1193.982422	2054.914063
1192.894531	2180.887207
1191.806641	2056.368408
1190.718750	2196.072021
1189.629883	2156.577637
1188.541016	2043.620605
1187.452148	2107.481201
1186.363281	2088.685791
1185.273438	2124.972900
1184.183594	2158.950439
1183.093750	2057.577148
1182.003906	2174.115479
1180.914063	2146.153076
1179.823242	2104.447266
1178.732422	2092.553955
1177.641602	2105.871582
1176.549805	2105.437256
1175.458984	2059.192383
1174.367188	2074.797852
1173.275391	2053.763428
1172.182617	2108.278320
1171.090820	2087.245117
1169.998047	2118.848389
1168.905273	2125.273682
1167.812500	2099.674805
1166.718750	2209.004883
1165.625977	2091.947510
1164.532227	2089.229004
1163.437500	2118.505859
1162.343750	2166.049316
1161.249023	2145.041260
1160.154297	2105.770508
1159.059570	2057.381836
1157.964844	2084.350830
1156.869141	2045.116333
1155.774414	2062.948242
1154.678711	2142.374512
1153.582031	2144.210938
1152.486328	2216.745117
1151.389648	2168.402100
1150.292969	2101.841553
1149.196289	2121.917480
1148.098633	2472.397217
1147.001953	2111.922363
1145.904297	2179.815918
1144.806641	2183.916992
1143.708008	2140.203125
1142.610352	2144.310059
1141.511719	2137.036133
1140.413086	2257.186523
1139.313477	2252.166504
1138.214844	2260.794678
1137.115234	2255.775635
1136.015625	2337.150879
1134.916016	2432.130127
1133.815430	2392.989258
1132.715820	2483.372559
1131.615234	2664.581787
1130.513672	2648.127441
1129.413086	2724.776123
1128.311523	2683.343750
1127.209961	2696.400879
1126.108398	2872.836670
1125.006836	2919.879395
1123.904297	2889.781006
1122.801758	2952.674561
1121.699219	2954.323975
1120.596680	3035.311768
1119.494141	2996.147705
1118.390625	2864.097900
1117.287109	2967.707031
1116.182617	2901.401367
1115.079102	2760.395508
1113.974609	2918.296631
1112.870117	2811.298584
1111.765625	2661.347412
1110.661133	2642.687988
1109.555664	2678.326660
1108.450195	2668.717529
1107.344727	2711.118652
1106.238281	2647.250000
1105.132813	2587.928467
1104.026367	2555.748047
1102.919922	2564.247559
1101.812500	2602.107178
1100.706055	2560.910156
1099.598633	2535.535156
1098.491211	2494.368896
1097.383789	2453.219727
1096.275391	2522.651367
1095.166992	2420.603271
1094.058594	2381.750488
1092.950195	2300.069336
1091.840820	2222.931396
1090.732422	2303.607178
1089.623047	2298.614014
1088.512695	2289.116455
1087.403320	2209.792480
1086.292969	2236.351074
1085.182617	2238.130371
1084.072266	2282.680664
1082.961914	2241.685791
1081.850586	2270.464844
1080.739258	2319.478760
1079.627930	2251.510254
1078.516602	2293.760986
1077.404297	2178.611816
1076.291992	2214.115723
1075.179688	2339.499023
1074.067383	2406.409912
1072.954102	2307.058350
1071.840820	2513.194824
1070.727539	2436.316895
1069.614258	2525.599365
1068.500000	2545.264160
1067.385742	2569.408691
1066.271484	2651.874756
1065.157227	2770.194824
1064.041992	2910.890381
1062.927734	3098.610352
1061.812500	3378.157715
1060.696289	3693.444580
1059.581055	4080.299316
1058.464844	4713.413086
1057.348633	5682.217773
1056.232422	6670.763672
1055.115234	8151.421387
1053.999023	9864.232422
1052.881836	11249.589844
1051.764648	12466.554688
1050.646484	13718.791016
1049.528320	14659.631836
1048.410156	15311.635742
1047.291992	16571.402344
1046.173828	18208.341797
1045.054688	21442.250000
1043.935547	24498.287109
1042.816406	22060.730469
1041.697266	16325.968750
1040.577148	11567.062500
1039.457031	8656.146484
1038.336914	6768.562988
1037.216797	5441.806641
1036.095703	4784.822266
1034.974609	4284.232910
1033.853516	3913.181885
1032.732422	3611.395752
1031.610352	3367.686523
1030.488281	3104.026611
1029.366211	3056.578125
1028.244141	2824.279785
1027.121094	2870.439697
1025.998047	2651.638428
1024.875000	2584.292969
1023.751953	2577.063232
1022.627930	2543.136719
1021.503906	2373.530518
1020.379883	2286.285400
1019.255859	2359.172119
1018.131836	2345.327881
1017.006836	2144.792480
1015.881836	2170.997559
1014.755859	2070.558594
1013.630859	2145.633301
1012.504883	2140.731445
1011.378906	2149.152588
1010.252930	2157.569824
1009.125977	2128.256348
1007.999023	2007.985474
1006.872070	2098.503906
1005.745117	2120.230957
1004.617188	2115.340576
1003.490234	2077.198975
1002.362305	2023.558960
1001.233398	2109.543945
1000.105469	2044.842529
998.976563	2028.897705
997.847656	2024.031982
996.718750	2023.596069
995.588867	2038.654907
994.458984	1971.824341
993.329102	2057.689697
992.199219	1982.035034
991.069336	1988.242554
989.938477	2032.036621
988.807617	1985.174438
987.676758	1984.746216
986.544922	2059.447998
985.413086	2067.840576
984.281250	2047.515381
983.149414	2002.907837
982.016602	2079.748291
980.884766	1995.420776
979.751953	2142.848389
978.618164	2049.717773
977.485352	2106.627930
976.351563	2079.707520
975.217773	2077.052979
974.083984	2058.968018
972.949219	2082.766357
971.814453	2084.519287
970.679688	1947.480225
969.544922	1984.502075
968.410156	2023.709839
967.274414	2043.086060
966.138672	2077.861572
965.001953	2064.207520
963.866211	2065.960205
962.729492	1997.322021
961.592773	1970.498413
960.456055	1948.083740
959.318359	2101.539795
958.180664	2065.919189
957.042969	2021.524902
955.905273	2062.825928
954.766602	2066.770996
953.628906	2035.579956
952.490234	2046.114990
951.350586	2054.450439
950.211914	2133.004150
949.072266	1970.186890
947.932617	1965.371704
946.791992	2015.383911
945.652344	1979.865112
944.511719	2139.455322
943.371094	2099.541504
942.229492	2081.555908
941.088867	2050.434082
939.947266	2106.931885
938.805664	2123.990723
937.663086	2202.339600
936.521484	2171.217773
935.378906	2131.356445
934.236328	2056.507813
933.092773	2222.294434
931.950195	2129.963623
930.806641	2114.194824
929.663086	2129.035156
928.518555	2165.722412
927.375000	2147.770752
926.230469	2184.437744
925.085938	2186.145020
923.940430	2257.722900
922.794922	2220.119141
921.649414	2193.443848
920.503906	2254.062500
919.358398	2220.846680
918.211914	2150.566162
917.065430	2265.669434
915.918945	2160.527100
914.771484	2192.750000
913.625000	2262.004883
912.477539	2209.221191
911.329102	2176.064209
910.181641	2214.788086
909.033203	2196.885254
907.884766	2248.647949
906.736328	2226.392578
905.586914	2286.829346
904.437500	2310.257813
903.288086	2240.154785
902.138672	2330.990234
900.988281	2345.697266
899.838867	2303.887207
898.687500	2422.897461
897.537109	2261.599365
896.386719	2300.200439
895.235352	2364.843262
894.083984	2331.758301
892.931641	2311.711182
891.780273	2374.138184
890.627930	2388.804932
889.474609	2383.942139
888.322266	2361.731689
887.168945	2445.774414
886.015625	2449.572998
884.862305	2420.860107
883.708984	2550.336914
882.554688	2463.123291
881.400391	2612.026123
880.246094	2576.805908
879.090820	2487.478271
877.936523	2612.468262
876.781250	2564.286865
875.625000	2622.136719
874.469727	2703.753906
873.313477	2703.158936
872.157227	2812.828613
871.000977	2853.279297
869.843750	2891.551025
868.686523	3163.152832
867.529297	3147.335205
866.372070	3377.726563
865.213867	3405.052002
864.055664	3589.951660
862.897461	3746.712158
861.739258	4136.442383
860.580078	4236.923340
859.420898	4773.036133
858.261719	5188.157715
857.101563	5631.121094
855.942383	6354.089844
854.782227	7150.006348
853.621094	7893.863770
852.460938	9081.109375
851.299805	10513.327148
850.138672	12076.245117
848.977539	13864.488281
847.815430	15473.318359
846.653320	17300.898438
845.491211	19635.332031
844.329102	21074.068359
843.166016	22062.783203
842.002930	22861.886719
840.839844	23159.869141
839.676758	23103.177734
838.512695	22784.421875
837.348633	22321.902344
836.184570	21378.589844
835.020508	20489.363281
833.855469	19488.917969
832.690430	18445.996094
831.525391	17684.583984
830.359375	16790.519531
829.193359	15858.250977
828.027344	15378.774414
826.861328	14528.681641
825.695313	13781.830078
824.528320	13266.704102
823.361328	12661.837891
822.193359	11992.991211
821.026367	11305.168945
819.858398	11013.672852
818.690430	10347.773438
817.521484	9990.286133
816.352539	9401.919922
815.183594	9002.024414
814.014648	8621.549805
812.845703	8119.388672
811.675781	7927.362793
810.505859	7502.504395
809.335938	7270.108398
808.165039	6798.593262
806.994141	6504.528320
805.823242	6195.648438
804.652344	5899.712402
803.480469	5644.453613
802.308594	5216.491699
801.136719	5115.077637
799.964844	4928.404785
798.791992	4611.755859
797.619141	4476.436523
796.446289	4183.470703
795.272461	4137.795410
794.099609	4041.014404
792.925781	3829.270508
791.750977	3628.266602
790.577148	3589.140381
789.402344	3420.203613
788.227539	3421.569580
787.052734	3210.197510
785.876953	3296.684570
784.701172	3157.732422
783.525391	3103.879883
782.348633	2965.031982
781.172852	2815.620850
779.996094	2831.989014
778.818359	2839.853271
777.641602	2745.782227
776.463867	2847.078369
775.286133	2748.802002
774.108398	2591.148926
772.929688	2743.331299
771.750977	2736.354980
770.572266	2697.570557
769.393555	2612.157715
768.213867	2622.172852
767.034180	2524.098633
765.854492	2595.574951
764.673828	2514.496826
763.494141	2628.300781
762.313477	2532.429199
761.131836	2567.850830
759.951172	2543.995361
758.769531	2532.846191
757.587891	2652.864258
756.406250	2478.836426
755.223633	2641.104004
754.041016	2539.035889
752.858398	2620.898926
751.674805	2645.669678
750.492188	2689.443604
749.308594	2693.065430
748.124023	2673.456543
746.940430	2778.420410
745.755859	2786.240967
744.571289	2726.527588
743.386719	2742.795166
742.201172	2868.742188
741.015625	2754.218506
739.830078	2846.371338
738.643555	2710.823975
737.458008	2813.482178
736.271484	2713.821533
735.083984	2740.597412
733.897461	2729.451904
732.709961	2806.745850
731.522461	2835.587158
730.334961	2895.985107
729.146484	3027.897217
727.958008	3001.972656
726.769531	3131.697754
725.580078	3135.199707
724.391602	3233.302002
723.202148	3253.593262
722.011719	3341.117676
720.822266	3262.634521
719.631836	3499.244629
718.441406	3565.654785
717.250977	4171.591309
716.059570	5251.622070
714.868164	5953.437012
713.676758	5217.788086
712.484375	4151.057129
711.292969	3491.639160
710.100586	3256.032715
708.907227	3083.416260
707.714844	2998.895264
706.521484	2646.227295
705.328125	2540.895264
704.133789	2475.400879
702.940430	2353.404053
701.746094	2363.340088
700.550781	2327.229004
699.356445	2347.627930
698.161133	2305.260742
696.965820	2235.724121
695.770508	2302.129883
694.574219	2226.353516
693.377930	2200.770996
692.181641	2279.676514
690.985352	2245.736816
689.788086	2193.015381
688.590820	2223.841797
687.393555	2189.937256
686.195313	2145.612061
684.997070	2201.468262
683.798828	2271.902588
682.600586	2177.530273
681.401367	2106.138428
680.202148	2180.715576
679.002930	2151.041748
677.803711	2038.026245
676.603516	2172.986328
675.403320	2126.670410
674.203125	2186.580566
673.001953	2127.790283
671.800781	2177.265137
670.599609	2133.070557
669.398438	2253.260986
668.196289	2105.063477
666.994141	2081.710938
665.791992	2114.506104
664.588867	2161.837158
663.385742	2159.269043
662.182617	2144.235596
660.979492	2006.649536
659.775391	1989.580322
658.571289	2142.778076
657.367188	2094.547607
656.162109	2187.465332
654.958008	2137.171143
653.752930	2105.569580
652.546875	2013.836792
651.341797	2114.981934
650.135742	2158.035889
648.929688	2047.699829
647.722656	2188.137939
646.515625	2173.139648
645.308594	2178.859863
644.101563	2130.739258
642.893555	2186.151123
641.686523	2098.725098
640.477539	2081.694092
639.269531	2182.592773
638.060547	2095.226563
636.851563	2131.971924
635.642578	2148.026367
634.432617	2073.128662
633.223633	2134.650879
632.012695	2090.779785
630.802734	2164.662842
629.591797	2215.796387
628.380859	2184.323730
627.169922	2192.083008
625.958984	2094.593018
624.747070	2071.421387
623.535156	2198.837158
622.322266	2231.332031
621.110352	2026.709717
619.897461	2213.825439
618.684570	2240.111816
617.470703	2309.653320
616.256836	2247.330566
615.042969	2277.709473
613.829102	2262.777588
612.614258	2375.477783
611.399414	2302.906006
610.184570	2277.690430
608.969727	2365.624512
607.753906	2363.028320
606.538086	2465.295410
605.321289	2341.393555
604.105469	2439.508057
602.888672	2393.747559
601.671875	2432.231689
600.454102	2419.353516
599.236328	2556.373047
598.018555	2549.630615
596.800781	2493.634033
595.582031	2575.140381
594.364258	2681.226563
593.144531	2682.664795
591.925781	2636.940674
590.706055	2798.290039
589.486328	2748.460693
588.266602	2919.956055
587.045898	2777.933105
585.825195	2736.334473
584.604492	2960.953857
583.382813	2909.095947
582.162109	3078.310303
580.940430	2948.689941
579.717773	2958.243896
578.496094	3045.516357
577.273438	3104.120117
576.050781	3168.830078
574.827148	3135.401367
573.603516	3148.987061
572.379883	3229.985596
571.156250	3145.501465
569.931641	3099.854980
568.707031	3346.177490
567.482422	3361.739258
566.257813	3391.578369
565.032227	3539.734375
563.806641	3516.485352
562.580078	3489.168213
561.354492	3594.384521
560.127930	3634.325928
558.901367	3655.908203
557.673828	3687.666992
556.446289	3780.518311
555.218750	3732.811768
553.991211	3882.617188
552.762695	3967.216797
551.534180	3994.795898
550.305664	4020.327393
549.076172	4037.710449
547.847656	4071.354004
546.618164	4210.707031
545.387695	4293.080078
544.157227	4251.447754
542.926758	4256.565430
541.696289	4310.431152
540.465820	4335.840332
539.234375	4418.087891
538.002930	4348.054199
536.770508	4383.583008
535.538086	4380.544922
534.305664	4438.362793
533.073242	4504.265625
531.840820	4397.794434
530.607422	4502.190430
529.373047	4499.126465
528.139648	4579.136230
526.905273	4326.894043
525.670898	4415.006836
524.436523	4509.152832
523.201172	4421.068359
521.965820	4349.214355
520.730469	4220.739258
519.495117	4341.139160
518.258789	4388.675781
517.022461	4185.466797
515.785156	4107.683594
514.548828	4242.144531
513.311523	4136.095215
512.073242	4104.838867
510.835938	4168.519043
509.597656	4086.789307
508.359375	4223.116699
507.120117	4183.794434
505.881836	4083.956787
504.642578	4151.600586
503.402344	3999.378418
502.163086	4050.879150
500.922852	4027.767334
499.682617	4022.804932
498.441406	3886.871338
497.200195	4010.871094
495.958984	3864.932373
494.717773	3972.770508
493.475586	3893.339844
492.233398	3978.981689
490.991211	3883.488281
489.748047	3804.132324
488.505859	3911.857910
487.261719	3772.208252
486.018555	3887.931885
484.774414	3925.217773
483.530273	3924.307861
482.286133	3818.934570
481.041016	3695.534180
479.795898	3815.155762
478.550781	3711.887695
477.305664	3857.540771
476.059570	3742.270508
474.813477	3747.420410
473.566406	3826.776611
472.320313	3705.577148
471.073242	3754.834717
469.825195	3661.767090
468.578125	3773.128662
467.330078	3706.142334
466.082031	3643.192871
464.833008	3666.374756
463.584961	3749.603516
462.334961	3746.730469
461.085938	3725.849365
459.835938	3760.992432
458.585938	3764.117676
457.335938	3687.257324
456.085938	3724.383057
454.834961	3725.514893
453.583984	3650.714355
452.332031	3767.730957
451.080078	3880.698242
449.828125	3767.973389
448.576172	3729.165283
447.323242	3814.119385
446.070313	3769.331543
444.817383	3800.372559
443.564453	3833.392822
442.310547	3792.618896
441.056641	3887.425293
439.801758	3856.622314
438.547852	3945.390869
437.291992	3974.353027
436.037109	3905.708252
434.781250	3992.410889
433.526367	3911.848389
432.269531	3988.556885
431.013672	3979.666504
429.756836	3962.822266
428.500000	3908.196289
427.242188	3945.063721
425.985352	4023.660889
424.727539	3889.557617
423.468750	3958.195068
422.210938	3953.296631
420.952148	4043.733887
419.692383	4062.644775
418.433594	4006.109375
417.173828	4003.187500
415.914063	3968.518555
414.653320	4142.163574
413.393555	4194.744141
412.132813	4102.550293
410.871094	4174.938965
409.610352	4078.828125
408.348633	4065.983887
407.085938	4094.746582
405.824219	4171.028320
404.561523	4134.409668
403.298828	4216.584473
402.035156	4162.158691
400.771484	4190.863281
399.507813	4354.073242
398.244141	4360.962891
396.979492	4346.098633
395.714844	4420.198730
394.450195	4512.050781
393.184570	4348.967285
391.918945	4421.037598
390.653320	4649.097168
389.387695	4622.336426
388.121094	4623.224609
386.854492	4685.293457
385.586914	4859.800293
384.320313	4744.243652
383.051758	4776.655762
381.784180	4822.854492
380.515625	4916.341309
379.247070	5094.527832
377.978516	4977.079590
376.709961	5224.112793
375.440430	5161.831543
374.170898	5213.778320
372.900391	5507.823730
371.629883	5292.012207
370.359375	5440.300781
369.088867	5397.709961
367.817383	5482.970215
366.545898	5521.001465
365.274414	5466.626465
364.001953	5534.121094
362.729492	5560.323242
361.457031	5505.975586
360.183594	5432.014160
358.910156	5554.426270
357.636719	5439.266113
356.363281	5487.043945
355.088867	5477.900879
353.814453	5417.761230
352.539063	5400.793457
351.264648	5474.020996
349.989258	5384.521484
348.712891	5297.022949
347.437500	5272.260742
346.161133	5288.643066
344.884766	5353.975098
343.607422	5109.937988
342.330078	5050.008301
341.052734	5146.659180
339.774414	5041.750000
338.497070	4968.185547
337.217773	5094.118164
335.939453	5083.137207
334.660156	5054.569336
333.380859	5137.399414
332.101563	5153.765625
330.821289	5136.918945
329.541016	5018.537598
328.260742	4913.877441
326.979492	5096.182617
325.698242	5044.239258
324.416992	4927.940918
323.135742	4969.681152
321.853516	4974.352051
320.571289	4904.938965
319.288086	4971.991211
318.004883	5046.805176
316.721680	4864.432617
315.438477	4972.345703
314.154297	5023.738281
312.870117	4987.503906
311.585938	5099.201660
310.300781	5136.905762
309.015625	5118.176270
307.730469	5074.172363
306.444336	4997.133301
305.158203	5205.891113
303.872070	5128.856445
302.585938	5222.844238
301.298828	5345.924805
300.011719	5270.852051
298.723633	5209.406250
297.435547	5206.224609
296.147461	5329.189941
294.859375	5341.501465
293.570313	5398.422363
292.281250	5443.679199
290.992188	5461.770020
289.702148	5487.604980
288.412109	5633.579102
287.122070	5767.858398
285.831055	5634.765137
284.540039	5676.024414
283.249023	5870.213867
281.957031	5969.464844
280.665039	6113.176270
279.373047	6049.805664
278.081055	6023.214844
276.788086	6327.312012
275.495117	6410.865234
274.201172	6567.826172
272.908203	6601.038574
271.613281	6655.485840
270.319336	6742.740723
269.024414	6847.332520
267.729492	6946.081543
266.434570	6952.139160
265.138672	6935.037598
263.842773	7031.763672
262.546875	7213.304688
261.250000	7398.614746
259.953125	7425.757813
258.656250	7277.502930
257.358398	7433.759277
256.060547	7476.283203
254.762695	7476.415527
253.464844	7366.796387
252.166016	7430.478516
250.867188	7586.506348
249.567383	7442.304199
248.267578	7427.051758
246.967773	7317.571289
245.667969	7567.685059
244.367188	7537.033203
243.066406	7550.596191
241.764648	7494.984375
240.463867	7404.823730
239.161133	7276.298340
237.859375	7376.303223
236.556641	7395.642090
235.253906	7361.239258
233.951172	7353.711914
232.647461	7486.205566
231.343750	7465.226563
230.040039	7467.262695
228.735352	7574.713867
227.430664	7908.226563
226.125977	7975.287109
224.820313	7804.818359
223.514648	7904.422363
222.208984	8321.762695
220.903320	8306.357422
219.596680	8641.119141
218.290039	8637.120117
216.982422	8608.258789
215.674805	8894.901367
214.367188	9047.591797
213.058594	9265.186523
211.750977	9318.356445
210.441406	9549.150391
209.132813	9777.920898
207.823242	9785.102539
206.513672	10175.954102
205.203125	10211.659180
203.893555	10552.609375
202.583008	10473.757813
201.271484	10570.384766
199.959961	10680.308594
198.648438	10702.500000
197.336914	11128.665039
196.024414	11238.371094
194.711914	11203.266602
193.399414	11312.898438
192.085938	11331.095703
190.772461	11377.832031
189.458984	11626.244141
188.144531	11804.146484
186.830078	11759.438477
185.514648	11823.132813
184.200195	11886.794922
182.884766	12165.183594
181.568359	12215.428711
180.252930	12689.255859
178.936523	12790.622070
177.620117	12724.855469
176.302734	13329.185547
174.985352	13394.260742
173.667969	13789.429688
172.349609	13941.612305
171.031250	14129.749023
169.712891	14059.951172
168.393555	14331.363281
167.074219	14147.848633
165.754883	14248.598633
164.434570	14218.607422
163.114258	14076.908203
161.793945	14440.740234
160.472656	14240.379883
159.152344	14339.083984
157.830078	14537.999023
156.508789	14593.078125
155.186523	14769.141602
153.864258	15190.862305
152.541016	15576.467773
151.217773	15791.833008
149.894531	16282.880859
148.570313	16752.914063
147.246094	17283.130859
145.921875	17652.642578
144.597656	18138.972656
143.272461	18770.335938
141.946289	19225.970703
140.621094	19470.177734
139.294922	19667.130859
137.968750	19654.771484
136.641602	19625.457031
135.314453	19462.398438
133.987305	19453.859375
132.660156	19520.638672
131.332031	19542.203125
130.002930	19516.703125
128.674805	19400.898438
127.345703	19234.359375
126.016602	19329.308594
124.686523	19360.281250
123.356445	19575.451172
122.026367	19454.125000
120.695313	19496.310547
119.365234	19778.900391
118.033203	19760.888672
116.702148	19940.011719
115.370117	19974.517578
114.038086	19699.384766
112.705078	20037.845703
111.372070	20509.302734
110.039063	20706.757813
108.705078	20784.138672
107.371094	21307.531250
106.037109	21234.822266
104.702148	21602.359375
103.367188	21797.417969
102.032227	22436.117188
100.697266	22765.640625
99.361328	23132.427734
98.024414	23268.904297
96.688477	24192.781250
95.351563	24444.863281
94.013672	24990.337891
92.676758	25537.406250
91.338867	25878.654297
90.000000	26064.669922
88.662109	26213.238281
87.323242	26552.185547
85.983398	27058.974609
84.644531	27223.970703
83.304688	27077.285156
81.963867	26841.128906
80.624023	27045.208984
79.283203	26958.328125
77.941406	27009.423828
76.599609	27397.791016
75.257813	27165.556641
73.916016	27771.611328
72.573242	27362.488281
71.230469	27521.378906
69.887695	27207.435547
68.543945	27650.976563
67.200195	27778.042969
65.855469	27864.125000
64.510742	28132.378906
63.166016	28472.992188
61.821289	28601.570313
60.475586	28945.607422
59.129883	28817.656250
57.783203	28791.904297
56.436523	28708.605469
55.089844	29080.099609
53.743164	29193.464844
52.395508	29559.078125
51.047852	30165.623047
49.699219	30762.587891
48.350586	30736.367188
47.001953	29744.556641
45.652344	28617.974609
44.302734	25365.359375
42.953125	19679.027344
41.602539	13540.065430
40.251953	8070.547852
38.901367	4461.748047
37.549805	2453.254639
36.198242	1479.722656
34.846680	1050.339966
33.494141	828.229553
32.141602	722.670959
30.788086	633.795349
29.435547	570.826965
28.082031	522.665100
26.727539	522.533936
25.373047	524.248718
24.018555	463.216125
22.664063	453.874695
21.308594	437.159637
19.952148	429.673401
18.596680	527.277649
17.240234	532.674561
15.883789	613.619385
14.526367	631.887329
13.168945	878.525940
11.811523	933.544006
10.453125	1148.687866
9.094727	1269.863647
7.736328	1760.801636
6.376953	3425.063965
##END=

